#  E (eV)   dosup(E)     dosdw(E)   Int dos(E) EFermi =   13.715 eV
 -16.000  0.2166E-18  0.1167E-19  0.1141E-19
 -15.950  0.1719E-20  0.7861E-22  0.1150E-19
 -15.900  0.1044E-22  0.4052E-24  0.1150E-19
 -15.850  0.4850E-25  0.1598E-26  0.1150E-19
 -15.800  0.1723E-27  0.4816E-29  0.1150E-19
 -15.750  0.4681E-30  0.1110E-31  0.1150E-19
 -15.700  0.9721E-33  0.1956E-34  0.1150E-19
 -15.650  0.1543E-35  0.2633E-37  0.1150E-19
 -15.600  0.1872E-38  0.2709E-40  0.1150E-19
 -15.550  0.1735E-41  0.2130E-43  0.1150E-19
 -15.500  0.1229E-44  0.1280E-46  0.1150E-19
 -15.450  0.6648E-48  0.5872E-50  0.1150E-19
 -15.400  0.2748E-51  0.2058E-53  0.1150E-19
 -15.350  0.8676E-55  0.5511E-57  0.1150E-19
 -15.300  0.2092E-58  0.1127E-60  0.1150E-19
 -15.250  0.3854E-62  0.1761E-64  0.1150E-19
 -15.200  0.5422E-66  0.2100E-68  0.1150E-19
 -15.150  0.5825E-70  0.1913E-72  0.1150E-19
 -15.100  0.4779E-74  0.1331E-76  0.1150E-19
 -15.050  0.2995E-78  0.7074E-81  0.1150E-19
 -15.000  0.1447E-82  0.1719E-84  0.1150E-19
 -14.950  0.1439E-84  0.1435E-84  0.1150E-19
 -14.900  0.1435E-84  0.1435E-84  0.1150E-19
 -14.850  0.1435E-84  0.1435E-84  0.1150E-19
 -14.800  0.1435E-84  0.1435E-84  0.1150E-19
 -14.750  0.1435E-84  0.1435E-84  0.1150E-19
 -14.700  0.1435E-84  0.1435E-84  0.1150E-19
 -14.650  0.1435E-84  0.1435E-84  0.1150E-19
 -14.600  0.1435E-84  0.1435E-84  0.1150E-19
 -14.550  0.1435E-84  0.1435E-84  0.1150E-19
 -14.500  0.1435E-84  0.1435E-84  0.1150E-19
 -14.450  0.1435E-84  0.1435E-84  0.1150E-19
 -14.400  0.1435E-84  0.1435E-84  0.1150E-19
 -14.350  0.1435E-84  0.1435E-84  0.1150E-19
 -14.300  0.1435E-84  0.1435E-84  0.1150E-19
 -14.250  0.1435E-84  0.1435E-84  0.1150E-19
 -14.200  0.1435E-84  0.1435E-84  0.1150E-19
 -14.150  0.1435E-84  0.1435E-84  0.1150E-19
 -14.100  0.1435E-84  0.1435E-84  0.1150E-19
 -14.050  0.1435E-84  0.1435E-84  0.1150E-19
 -14.000  0.1435E-84  0.1435E-84  0.1150E-19
 -13.950  0.1435E-84  0.1435E-84  0.1150E-19
 -13.900  0.1435E-84  0.1435E-84  0.1150E-19
 -13.850  0.1435E-84  0.1435E-84  0.1150E-19
 -13.800  0.1435E-84  0.1435E-84  0.1150E-19
 -13.750  0.1435E-84  0.1435E-84  0.1150E-19
 -13.700  0.1435E-84  0.1435E-84  0.1150E-19
 -13.650  0.1435E-84  0.1435E-84  0.1150E-19
 -13.600  0.1435E-84  0.1435E-84  0.1150E-19
 -13.550  0.1435E-84  0.1435E-84  0.1150E-19
 -13.500  0.1435E-84  0.1435E-84  0.1150E-19
 -13.450  0.1435E-84  0.1435E-84  0.1150E-19
 -13.400  0.1435E-84  0.1435E-84  0.1150E-19
 -13.350  0.1435E-84  0.1435E-84  0.1150E-19
 -13.300  0.1435E-84  0.1435E-84  0.1150E-19
 -13.250  0.1435E-84  0.1435E-84  0.1150E-19
 -13.200  0.1435E-84  0.1435E-84  0.1150E-19
 -13.150  0.1435E-84  0.1435E-84  0.1150E-19
 -13.100  0.1435E-84  0.1435E-84  0.1150E-19
 -13.050  0.1435E-84  0.1435E-84  0.1150E-19
 -13.000  0.1435E-84  0.1435E-84  0.1150E-19
 -12.950  0.1435E-84  0.1435E-84  0.1150E-19
 -12.900  0.1435E-84  0.1435E-84  0.1150E-19
 -12.850  0.1435E-84  0.1435E-84  0.1150E-19
 -12.800  0.1435E-84  0.1435E-84  0.1150E-19
 -12.750  0.1435E-84  0.1435E-84  0.1150E-19
 -12.700  0.1435E-84  0.1435E-84  0.1150E-19
 -12.650  0.1435E-84  0.1435E-84  0.1150E-19
 -12.600  0.1435E-84  0.1435E-84  0.1150E-19
 -12.550  0.1435E-84  0.1435E-84  0.1150E-19
 -12.500  0.1435E-84  0.1435E-84  0.1150E-19
 -12.450  0.1435E-84  0.1435E-84  0.1150E-19
 -12.400  0.1435E-84  0.1435E-84  0.1150E-19
 -12.350  0.1435E-84  0.1435E-84  0.1150E-19
 -12.300  0.1435E-84  0.1435E-84  0.1150E-19
 -12.250  0.1435E-84  0.1435E-84  0.1150E-19
 -12.200  0.1435E-84  0.1435E-84  0.1150E-19
 -12.150  0.1435E-84  0.1435E-84  0.1150E-19
 -12.100  0.1435E-84  0.1435E-84  0.1150E-19
 -12.050  0.1435E-84  0.1435E-84  0.1150E-19
 -12.000  0.1435E-84  0.1435E-84  0.1150E-19
 -11.950  0.1435E-84  0.1435E-84  0.1150E-19
 -11.900  0.1435E-84  0.1435E-84  0.1150E-19
 -11.850  0.1435E-84  0.1435E-84  0.1150E-19
 -11.800  0.1435E-84  0.1435E-84  0.1150E-19
 -11.750  0.1435E-84  0.1435E-84  0.1150E-19
 -11.700  0.1435E-84  0.1435E-84  0.1150E-19
 -11.650  0.1435E-84  0.1435E-84  0.1150E-19
 -11.600  0.1435E-84  0.1435E-84  0.1150E-19
 -11.550  0.1435E-84  0.1435E-84  0.1150E-19
 -11.500  0.1435E-84  0.1435E-84  0.1150E-19
 -11.450  0.1435E-84  0.1435E-84  0.1150E-19
 -11.400  0.1435E-84  0.1435E-84  0.1150E-19
 -11.350  0.1435E-84  0.1435E-84  0.1150E-19
 -11.300  0.1435E-84  0.1435E-84  0.1150E-19
 -11.250  0.1435E-84  0.1435E-84  0.1150E-19
 -11.200  0.1435E-84  0.1435E-84  0.1150E-19
 -11.150  0.1435E-84  0.1435E-84  0.1150E-19
 -11.100  0.1435E-84  0.1435E-84  0.1150E-19
 -11.050  0.1435E-84  0.1435E-84  0.1150E-19
 -11.000  0.1435E-84  0.1435E-84  0.1150E-19
 -10.950  0.1435E-84  0.1435E-84  0.1150E-19
 -10.900  0.1435E-84  0.1435E-84  0.1150E-19
 -10.850  0.1435E-84  0.1435E-84  0.1150E-19
 -10.800  0.1435E-84  0.1435E-84  0.1150E-19
 -10.750  0.1435E-84  0.1435E-84  0.1150E-19
 -10.700  0.1435E-84  0.1435E-84  0.1150E-19
 -10.650  0.1435E-84  0.1435E-84  0.1150E-19
 -10.600  0.1435E-84  0.1435E-84  0.1150E-19
 -10.550  0.1435E-84  0.1435E-84  0.1150E-19
 -10.500  0.1435E-84  0.1435E-84  0.1150E-19
 -10.450  0.1435E-84  0.1435E-84  0.1150E-19
 -10.400  0.1435E-84  0.1435E-84  0.1150E-19
 -10.350  0.1435E-84  0.1435E-84  0.1150E-19
 -10.300  0.1435E-84  0.1435E-84  0.1150E-19
 -10.250  0.1435E-84  0.1435E-84  0.1150E-19
 -10.200  0.4556E-84  0.3689E-84  0.1150E-19
 -10.150  0.7296E-80  0.5317E-80  0.1150E-19
 -10.100  0.1301E-75  0.9563E-76  0.1150E-19
 -10.050  0.1771E-71  0.1313E-71  0.1150E-19
 -10.000  0.1842E-67  0.1377E-67  0.1150E-19
  -9.950  0.1462E-63  0.1103E-63  0.1150E-19
  -9.900  0.8860E-60  0.6741E-60  0.1150E-19
  -9.850  0.4101E-56  0.3147E-56  0.1150E-19
  -9.800  0.1449E-52  0.1122E-52  0.1150E-19
  -9.750  0.3912E-49  0.3054E-49  0.1150E-19
  -9.700  0.8064E-46  0.6349E-46  0.1150E-19
  -9.650  0.1269E-42  0.1008E-42  0.1150E-19
  -9.600  0.1526E-39  0.1223E-39  0.1150E-19
  -9.550  0.1402E-36  0.1132E-36  0.1150E-19
  -9.500  0.9833E-34  0.8012E-34  0.1150E-19
  -9.450  0.5269E-31  0.4331E-31  0.1150E-19
  -9.400  0.2157E-28  0.1788E-28  0.1150E-19
  -9.350  0.6748E-26  0.5642E-26  0.1150E-19
  -9.300  0.1613E-23  0.1360E-23  0.1150E-19
  -9.250  0.2947E-21  0.2506E-21  0.1153E-19
  -9.200  0.4115E-19  0.3530E-19  0.1535E-19
  -9.150  0.4394E-17  0.3802E-17  0.4251E-18
  -9.100  0.3587E-15  0.3130E-15  0.3401E-16
  -9.050  0.2240E-13  0.1972E-13  0.2140E-14
  -9.000  0.1071E-11  0.9504E-12  0.1032E-12
  -8.950  0.3917E-10  0.3507E-10  0.3815E-11
  -8.900  0.1097E-08  0.9908E-09  0.1082E-09
  -8.850  0.2356E-07  0.2145E-07  0.2359E-08
  -8.800  0.3878E-06  0.3561E-06  0.3955E-07
  -8.750  0.4898E-05  0.4536E-05  0.5112E-06
  -8.700  0.4753E-04  0.4438E-04  0.5107E-05
  -8.650  0.3547E-03  0.3340E-03  0.3954E-04
  -8.600  0.2040E-02  0.1937E-02  0.2384E-03
  -8.550  0.9060E-02  0.8673E-02  0.1125E-02
  -8.500  0.3121E-01  0.3011E-01  0.4191E-02
  -8.450  0.8392E-01  0.8158E-01  0.1247E-01
  -8.400  0.1783E+00  0.1745E+00  0.3010E-01
  -8.350  0.3057E+00  0.3009E+00  0.6044E-01
  -8.300  0.4392E+00  0.4338E+00  0.1041E+00
  -8.250  0.5562E+00  0.5504E+00  0.1594E+00
  -8.200  0.6523E+00  0.6464E+00  0.2244E+00
  -8.150  0.7236E+00  0.7188E+00  0.2965E+00
  -8.100  0.7562E+00  0.7540E+00  0.3720E+00
  -8.050  0.7441E+00  0.7445E+00  0.4464E+00
  -8.000  0.6995E+00  0.7016E+00  0.5165E+00
  -7.950  0.6392E+00  0.6416E+00  0.5805E+00
  -7.900  0.5756E+00  0.5776E+00  0.6382E+00
  -7.850  0.5228E+00  0.5240E+00  0.6905E+00
  -7.800  0.4898E+00  0.4908E+00  0.7395E+00
  -7.750  0.4693E+00  0.4709E+00  0.7865E+00
  -7.700  0.4493E+00  0.4513E+00  0.8316E+00
  -7.650  0.4330E+00  0.4341E+00  0.8749E+00
  -7.600  0.4313E+00  0.4312E+00  0.9181E+00
  -7.550  0.4425E+00  0.4417E+00  0.9623E+00
  -7.500  0.4541E+00  0.4532E+00  0.1008E+01
  -7.450  0.4607E+00  0.4598E+00  0.1054E+01
  -7.400  0.4631E+00  0.4624E+00  0.1100E+01
  -7.350  0.4594E+00  0.4591E+00  0.1146E+01
  -7.300  0.4498E+00  0.4496E+00  0.1191E+01
  -7.250  0.4407E+00  0.4400E+00  0.1235E+01
  -7.200  0.4324E+00  0.4320E+00  0.1278E+01
  -7.150  0.4182E+00  0.4185E+00  0.1320E+01
  -7.100  0.3999E+00  0.4000E+00  0.1360E+01
  -7.050  0.3906E+00  0.3893E+00  0.1399E+01
  -7.000  0.3955E+00  0.3934E+00  0.1438E+01
  -6.950  0.4041E+00  0.4026E+00  0.1479E+01
  -6.900  0.4036E+00  0.4031E+00  0.1519E+01
  -6.850  0.3925E+00  0.3923E+00  0.1558E+01
  -6.800  0.3782E+00  0.3775E+00  0.1596E+01
  -6.750  0.3685E+00  0.3671E+00  0.1633E+01
  -6.700  0.3667E+00  0.3646E+00  0.1669E+01
  -6.650  0.3711E+00  0.3687E+00  0.1706E+01
  -6.600  0.3788E+00  0.3761E+00  0.1744E+01
  -6.550  0.3865E+00  0.3835E+00  0.1783E+01
  -6.500  0.3908E+00  0.3879E+00  0.1822E+01
  -6.450  0.3901E+00  0.3874E+00  0.1860E+01
  -6.400  0.3885E+00  0.3849E+00  0.1899E+01
  -6.350  0.3926E+00  0.3867E+00  0.1938E+01
  -6.300  0.4085E+00  0.3992E+00  0.1978E+01
  -6.250  0.4458E+00  0.4299E+00  0.2022E+01
  -6.200  0.5191E+00  0.4905E+00  0.2073E+01
  -6.150  0.6411E+00  0.5951E+00  0.2135E+01
  -6.100  0.8049E+00  0.7467E+00  0.2212E+01
  -6.050  0.9668E+00  0.9151E+00  0.2306E+01
  -6.000  0.1053E+01  0.1033E+01  0.2411E+01
  -5.950  0.1007E+01  0.1032E+01  0.2512E+01
  -5.900  0.8345E+00  0.8967E+00  0.2599E+01
  -5.850  0.6068E+00  0.6794E+00  0.2663E+01
  -5.800  0.4053E+00  0.4627E+00  0.2707E+01
  -5.750  0.2724E+00  0.3054E+00  0.2736E+01
  -5.700  0.2059E+00  0.2195E+00  0.2757E+01
  -5.650  0.1820E+00  0.1853E+00  0.2775E+01
  -5.600  0.1778E+00  0.1764E+00  0.2793E+01
  -5.550  0.1836E+00  0.1789E+00  0.2811E+01
  -5.500  0.2069E+00  0.1966E+00  0.2831E+01
  -5.450  0.2632E+00  0.2430E+00  0.2857E+01
  -5.400  0.3631E+00  0.3301E+00  0.2891E+01
  -5.350  0.5027E+00  0.4593E+00  0.2939E+01
  -5.300  0.6540E+00  0.6113E+00  0.3003E+01
  -5.250  0.7704E+00  0.7425E+00  0.3078E+01
  -5.200  0.8106E+00  0.8067E+00  0.3159E+01
  -5.150  0.7637E+00  0.7842E+00  0.3237E+01
  -5.100  0.6526E+00  0.6896E+00  0.3304E+01
  -5.050  0.5189E+00  0.5593E+00  0.3358E+01
  -5.000  0.3998E+00  0.4329E+00  0.3399E+01
  -4.950  0.3124E+00  0.3342E+00  0.3431E+01
  -4.900  0.2573E+00  0.2691E+00  0.3458E+01
  -4.850  0.2314E+00  0.2349E+00  0.3481E+01
  -4.800  0.2312E+00  0.2277E+00  0.3504E+01
  -4.750  0.2512E+00  0.2415E+00  0.3529E+01
  -4.700  0.2925E+00  0.2747E+00  0.3557E+01
  -4.650  0.3686E+00  0.3390E+00  0.3592E+01
  -4.600  0.4844E+00  0.4454E+00  0.3639E+01
  -4.550  0.6094E+00  0.5738E+00  0.3698E+01
  -4.500  0.6879E+00  0.6708E+00  0.3766E+01
  -4.450  0.6821E+00  0.6902E+00  0.3835E+01
  -4.400  0.5925E+00  0.6229E+00  0.3895E+01
  -4.350  0.4461E+00  0.4902E+00  0.3942E+01
  -4.300  0.2840E+00  0.3293E+00  0.3973E+01
  -4.250  0.1485E+00  0.1832E+00  0.3989E+01
  -4.200  0.6216E-01  0.8215E-01  0.3997E+01
  -4.150  0.2048E-01  0.2911E-01  0.3999E+01
  -4.100  0.5256E-02  0.8053E-02  0.4000E+01
  -4.050  0.1043E-02  0.1726E-02  0.4000E+01
  -4.000  0.1595E-03  0.2851E-03  0.4000E+01
  -3.950  0.1874E-04  0.3622E-04  0.4000E+01
  -3.900  0.1689E-05  0.3532E-05  0.4000E+01
  -3.850  0.1167E-06  0.2640E-06  0.4000E+01
  -3.800  0.6173E-08  0.1511E-07  0.4000E+01
  -3.750  0.2499E-09  0.6620E-09  0.4000E+01
  -3.700  0.7738E-11  0.2219E-10  0.4000E+01
  -3.650  0.2014E-12  0.8316E-12  0.4000E+01
  -3.600  0.9623E-12  0.1162E-10  0.4000E+01
  -3.550  0.3874E-10  0.3925E-09  0.4000E+01
  -3.500  0.1198E-08  0.1015E-07  0.4000E+01
  -3.450  0.2834E-07  0.2011E-06  0.4000E+01
  -3.400  0.5138E-06  0.3053E-05  0.4000E+01
  -3.350  0.7139E-05  0.3555E-04  0.4000E+01
  -3.300  0.7612E-04  0.3180E-03  0.4000E+01
  -3.250  0.6237E-03  0.2188E-02  0.4000E+01
  -3.200  0.3935E-02  0.1162E-01  0.4001E+01
  -3.150  0.1917E-01  0.4774E-01  0.4004E+01
  -3.100  0.7245E-01  0.1528E+00  0.4016E+01
  -3.050  0.2137E+00  0.3837E+00  0.4045E+01
  -3.000  0.4966E+00  0.7661E+00  0.4109E+01
  -2.950  0.9229E+00  0.1240E+01  0.4217E+01
  -2.900  0.1402E+01  0.1672E+01  0.4370E+01
  -2.850  0.1795E+01  0.1944E+01  0.4557E+01
  -2.800  0.2004E+01  0.2020E+01  0.4759E+01
  -2.750  0.2014E+01  0.1917E+01  0.4955E+01
  -2.700  0.1852E+01  0.1671E+01  0.5131E+01
  -2.650  0.1562E+01  0.1336E+01  0.5276E+01
  -2.600  0.1210E+01  0.9862E+00  0.5386E+01
  -2.550  0.8748E+00  0.6968E+00  0.5465E+01
  -2.500  0.6191E+00  0.5028E+00  0.5521E+01
  -2.450  0.4574E+00  0.3905E+00  0.5563E+01
  -2.400  0.3643E+00  0.3283E+00  0.5598E+01
  -2.350  0.3119E+00  0.3046E+00  0.5628E+01
  -2.300  0.2976E+00  0.3359E+00  0.5660E+01
  -2.250  0.3413E+00  0.4471E+00  0.5700E+01
  -2.200  0.4648E+00  0.6394E+00  0.5755E+01
  -2.150  0.6636E+00  0.8658E+00  0.5831E+01
  -2.100  0.8866E+00  0.1052E+01  0.5928E+01
  -2.050  0.1063E+01  0.1165E+01  0.6040E+01
  -2.000  0.1170E+01  0.1241E+01  0.6160E+01
  -1.950  0.1251E+01  0.1329E+01  0.6289E+01
  -1.900  0.1341E+01  0.1398E+01  0.6426E+01
  -1.850  0.1398E+01  0.1359E+01  0.6564E+01
  -1.800  0.1339E+01  0.1166E+01  0.6689E+01
  -1.750  0.1133E+01  0.8717E+00  0.6789E+01
  -1.700  0.8380E+00  0.5794E+00  0.6860E+01
  -1.650  0.5507E+00  0.3657E+00  0.6906E+01
  -1.600  0.3447E+00  0.2494E+00  0.6936E+01
  -1.550  0.2405E+00  0.2109E+00  0.6958E+01
  -1.500  0.2180E+00  0.2208E+00  0.6980E+01
  -1.450  0.2428E+00  0.2536E+00  0.7005E+01
  -1.400  0.2800E+00  0.2864E+00  0.7033E+01
  -1.350  0.3036E+00  0.3039E+00  0.7064E+01
  -1.300  0.3078E+00  0.3077E+00  0.7095E+01
  -1.250  0.3054E+00  0.3069E+00  0.7125E+01
  -1.200  0.3029E+00  0.2987E+00  0.7155E+01
  -1.150  0.2881E+00  0.2709E+00  0.7183E+01
  -1.100  0.2500E+00  0.2251E+00  0.7207E+01
  -1.050  0.2015E+00  0.1841E+00  0.7226E+01
  -1.000  0.1712E+00  0.1727E+00  0.7243E+01
  -0.950  0.1772E+00  0.1944E+00  0.7262E+01
  -0.900  0.2096E+00  0.2263E+00  0.7284E+01
  -0.850  0.2388E+00  0.2408E+00  0.7308E+01
  -0.800  0.2431E+00  0.2313E+00  0.7332E+01
  -0.750  0.2270E+00  0.2145E+00  0.7354E+01
  -0.700  0.2129E+00  0.2117E+00  0.7375E+01
  -0.650  0.2187E+00  0.2298E+00  0.7397E+01
  -0.600  0.2418E+00  0.2544E+00  0.7422E+01
  -0.550  0.2612E+00  0.2638E+00  0.7448E+01
  -0.500  0.2613E+00  0.2552E+00  0.7474E+01
  -0.450  0.2519E+00  0.2498E+00  0.7499E+01
  -0.400  0.2549E+00  0.2636E+00  0.7525E+01
  -0.350  0.2739E+00  0.2875E+00  0.7553E+01
  -0.300  0.2945E+00  0.3098E+00  0.7583E+01
  -0.250  0.3167E+00  0.3492E+00  0.7617E+01
  -0.200  0.3718E+00  0.4469E+00  0.7658E+01
  -0.150  0.4982E+00  0.6253E+00  0.7714E+01
  -0.100  0.7017E+00  0.8579E+00  0.7792E+01
  -0.050  0.9385E+00  0.1083E+01  0.7893E+01
   0.000  0.1144E+01  0.1251E+01  0.8013E+01
   0.050  0.1283E+01  0.1345E+01  0.8144E+01
   0.100  0.1350E+01  0.1353E+01  0.8279E+01
   0.150  0.1329E+01  0.1250E+01  0.8408E+01
   0.200  0.1193E+01  0.1033E+01  0.8520E+01
   0.250  0.9536E+00  0.7621E+00  0.8605E+01
   0.300  0.6843E+00  0.5222E+00  0.8666E+01
   0.350  0.4671E+00  0.3651E+00  0.8707E+01
   0.400  0.3357E+00  0.2858E+00  0.8738E+01
   0.450  0.2720E+00  0.2508E+00  0.8765E+01
   0.500  0.2410E+00  0.2297E+00  0.8788E+01
   0.550  0.2160E+00  0.2054E+00  0.8809E+01
   0.600  0.1853E+00  0.1735E+00  0.8827E+01
   0.650  0.1517E+00  0.1419E+00  0.8842E+01
   0.700  0.1261E+00  0.1215E+00  0.8854E+01
   0.750  0.1155E+00  0.1160E+00  0.8866E+01
   0.800  0.1177E+00  0.1213E+00  0.8878E+01
   0.850  0.1281E+00  0.1333E+00  0.8891E+01
   0.900  0.1442E+00  0.1509E+00  0.8905E+01
   0.950  0.1653E+00  0.1734E+00  0.8922E+01
   1.000  0.1895E+00  0.1981E+00  0.8942E+01
   1.050  0.2142E+00  0.2214E+00  0.8964E+01
   1.100  0.2343E+00  0.2375E+00  0.8987E+01
   1.150  0.2417E+00  0.2387E+00  0.9011E+01
   1.200  0.2312E+00  0.2230E+00  0.9034E+01
   1.250  0.2075E+00  0.1973E+00  0.9054E+01
   1.300  0.1801E+00  0.1709E+00  0.9072E+01
   1.350  0.1562E+00  0.1502E+00  0.9087E+01
   1.400  0.1412E+00  0.1400E+00  0.9101E+01
   1.450  0.1391E+00  0.1423E+00  0.9115E+01
   1.500  0.1476E+00  0.1516E+00  0.9130E+01
   1.550  0.1570E+00  0.1582E+00  0.9146E+01
   1.600  0.1587E+00  0.1556E+00  0.9162E+01
   1.650  0.1501E+00  0.1430E+00  0.9176E+01
   1.700  0.1317E+00  0.1216E+00  0.9189E+01
   1.750  0.1053E+00  0.9410E-01  0.9199E+01
   1.800  0.7628E-01  0.6720E-01  0.9206E+01
   1.850  0.5512E-01  0.5165E-01  0.9211E+01
   1.900  0.5192E-01  0.5547E-01  0.9217E+01
   1.950  0.6900E-01  0.7818E-01  0.9224E+01
   2.000  0.1008E+00  0.1129E+00  0.9235E+01
   2.050  0.1395E+00  0.1521E+00  0.9249E+01
   2.100  0.1777E+00  0.1881E+00  0.9268E+01
   2.150  0.2064E+00  0.2117E+00  0.9289E+01
   2.200  0.2189E+00  0.2191E+00  0.9310E+01
   2.250  0.2183E+00  0.2163E+00  0.9332E+01
   2.300  0.2120E+00  0.2092E+00  0.9353E+01
   2.350  0.2000E+00  0.1944E+00  0.9373E+01
   2.400  0.1777E+00  0.1691E+00  0.9390E+01
   2.450  0.1507E+00  0.1435E+00  0.9405E+01
   2.500  0.1342E+00  0.1324E+00  0.9418E+01
   2.550  0.1348E+00  0.1368E+00  0.9432E+01
   2.600  0.1437E+00  0.1460E+00  0.9446E+01
   2.650  0.1533E+00  0.1557E+00  0.9462E+01
   2.700  0.1669E+00  0.1713E+00  0.9479E+01
   2.750  0.1868E+00  0.1918E+00  0.9498E+01
   2.800  0.2036E+00  0.2053E+00  0.9518E+01
   2.850  0.2076E+00  0.2058E+00  0.9539E+01
   2.900  0.2036E+00  0.2014E+00  0.9559E+01
   2.950  0.2006E+00  0.1992E+00  0.9579E+01
   3.000  0.1966E+00  0.1938E+00  0.9599E+01
   3.050  0.1844E+00  0.1794E+00  0.9617E+01
   3.100  0.1689E+00  0.1652E+00  0.9633E+01
   3.150  0.1653E+00  0.1660E+00  0.9650E+01
   3.200  0.1800E+00  0.1844E+00  0.9668E+01
   3.250  0.2061E+00  0.2113E+00  0.9689E+01
   3.300  0.2347E+00  0.2396E+00  0.9713E+01
   3.350  0.2631E+00  0.2677E+00  0.9739E+01
   3.400  0.2922E+00  0.2967E+00  0.9769E+01
   3.450  0.3221E+00  0.3261E+00  0.9801E+01
   3.500  0.3455E+00  0.3465E+00  0.9836E+01
   3.550  0.3467E+00  0.3421E+00  0.9870E+01
   3.600  0.3187E+00  0.3096E+00  0.9902E+01
   3.650  0.2750E+00  0.2653E+00  0.9929E+01
   3.700  0.2325E+00  0.2241E+00  0.9952E+01
   3.750  0.1919E+00  0.1832E+00  0.9970E+01
   3.800  0.1447E+00  0.1348E+00  0.9984E+01
   3.850  0.9250E-01  0.8315E-01  0.9993E+01
   3.900  0.4782E-01  0.4123E-01  0.9998E+01
   3.950  0.1950E-01  0.1607E-01  0.9999E+01
   4.000  0.6190E-02  0.4872E-02  0.1000E+02
   4.050  0.1520E-02  0.1141E-02  0.1000E+02
   4.100  0.2876E-03  0.2059E-03  0.1000E+02
   4.150  0.4184E-04  0.2854E-04  0.1000E+02
   4.200  0.4671E-05  0.3036E-05  0.1000E+02
   4.250  0.3999E-06  0.2476E-06  0.1000E+02
   4.300  0.2623E-07  0.1547E-07  0.1000E+02
   4.350  0.1318E-08  0.7403E-09  0.1000E+02
   4.400  0.5067E-10  0.2711E-10  0.1000E+02
   4.450  0.1491E-11  0.7598E-12  0.1000E+02
   4.500  0.3356E-13  0.1629E-13  0.1000E+02
   4.550  0.5777E-15  0.2670E-15  0.1000E+02
   4.600  0.7605E-17  0.3348E-17  0.1000E+02
   4.650  0.7654E-19  0.3208E-19  0.1000E+02
   4.700  0.5888E-21  0.2350E-21  0.1000E+02
   4.750  0.3462E-23  0.1316E-23  0.1000E+02
   4.800  0.1555E-25  0.5629E-26  0.1000E+02
   4.850  0.5339E-28  0.1840E-28  0.1000E+02
   4.900  0.1400E-30  0.4594E-31  0.1000E+02
   4.950  0.2805E-33  0.8763E-34  0.1000E+02
   5.000  0.4294E-36  0.1277E-36  0.1000E+02
   5.050  0.1209E-36  0.3292E-39  0.1000E+02
   5.100  0.8233E-34  0.1654E-36  0.1000E+02
   5.150  0.4296E-31  0.1116E-33  0.1000E+02
   5.200  0.1711E-28  0.5751E-31  0.1000E+02
   5.250  0.5202E-26  0.2261E-28  0.1000E+02
   5.300  0.1207E-23  0.6787E-26  0.1000E+02
   5.350  0.2139E-21  0.1555E-23  0.1000E+02
   5.400  0.2892E-19  0.2719E-21  0.1000E+02
   5.450  0.2985E-17  0.3630E-19  0.1000E+02
   5.500  0.2352E-15  0.3699E-17  0.1000E+02
   5.550  0.1415E-13  0.2878E-15  0.1000E+02
   5.600  0.6500E-12  0.1709E-13  0.1000E+02
   5.650  0.2280E-10  0.7749E-12  0.1000E+02
   5.700  0.6107E-09  0.2683E-10  0.1000E+02
   5.750  0.1250E-07  0.7095E-09  0.1000E+02
   5.800  0.1955E-06  0.1434E-07  0.1000E+02
   5.850  0.2339E-05  0.2214E-06  0.1000E+02
   5.900  0.2144E-04  0.2616E-05  0.1000E+02
   5.950  0.1507E-03  0.2366E-04  0.1000E+02
   6.000  0.8141E-03  0.1642E-03  0.1000E+02
   6.050  0.3394E-02  0.8764E-03  0.1000E+02
   6.100  0.1098E-01  0.3609E-02  0.1000E+02
   6.150  0.2774E-01  0.1153E-01  0.1000E+02
   6.200  0.5544E-01  0.2882E-01  0.1001E+02
   6.250  0.8919E-01  0.5696E-01  0.1001E+02
   6.300  0.1190E+00  0.9074E-01  0.1002E+02
   6.350  0.1381E+00  0.1201E+00  0.1004E+02
   6.400  0.1488E+00  0.1386E+00  0.1005E+02
   6.450  0.1569E+00  0.1490E+00  0.1007E+02
   6.500  0.1628E+00  0.1572E+00  0.1008E+02
   6.550  0.1615E+00  0.1636E+00  0.1010E+02
   6.600  0.1534E+00  0.1645E+00  0.1012E+02
   6.650  0.1547E+00  0.1639E+00  0.1013E+02
   6.700  0.1931E+00  0.1823E+00  0.1015E+02
   6.750  0.2850E+00  0.2457E+00  0.1018E+02
   6.800  0.4133E+00  0.3568E+00  0.1022E+02
   6.850  0.5332E+00  0.4801E+00  0.1027E+02
   6.900  0.6061E+00  0.5680E+00  0.1032E+02
   6.950  0.6248E+00  0.6010E+00  0.1039E+02
   7.000  0.6101E+00  0.5942E+00  0.1045E+02
   7.050  0.5897E+00  0.5743E+00  0.1050E+02
   7.100  0.5764E+00  0.5601E+00  0.1056E+02
   7.150  0.5612E+00  0.5547E+00  0.1062E+02
   7.200  0.5321E+00  0.5469E+00  0.1067E+02
   7.250  0.4958E+00  0.5248E+00  0.1072E+02
   7.300  0.4720E+00  0.4932E+00  0.1077E+02
   7.350  0.4740E+00  0.4731E+00  0.1082E+02
   7.400  0.5008E+00  0.4829E+00  0.1087E+02
   7.450  0.5418E+00  0.5221E+00  0.1092E+02
   7.500  0.5829E+00  0.5715E+00  0.1098E+02
   7.550  0.6126E+00  0.6090E+00  0.1104E+02
   7.600  0.6276E+00  0.6285E+00  0.1110E+02
   7.650  0.6338E+00  0.6415E+00  0.1117E+02
   7.700  0.6472E+00  0.6629E+00  0.1123E+02
   7.750  0.6850E+00  0.7013E+00  0.1130E+02
   7.800  0.7488E+00  0.7558E+00  0.1138E+02
   7.850  0.8226E+00  0.8158E+00  0.1146E+02
   7.900  0.8972E+00  0.8724E+00  0.1155E+02
   7.950  0.9850E+00  0.9270E+00  0.1164E+02
   8.000  0.1101E+01  0.9835E+00  0.1175E+02
   8.050  0.1235E+01  0.1044E+01  0.1186E+02
   8.100  0.1354E+01  0.1121E+01  0.1198E+02
   8.150  0.1435E+01  0.1226E+01  0.1212E+02
   8.200  0.1483E+01  0.1344E+01  0.1226E+02
   8.250  0.1516E+01  0.1442E+01  0.1241E+02
   8.300  0.1557E+01  0.1512E+01  0.1256E+02
   8.350  0.1615E+01  0.1581E+01  0.1272E+02
   8.400  0.1677E+01  0.1661E+01  0.1289E+02
   8.450  0.1716E+01  0.1723E+01  0.1306E+02
   8.500  0.1715E+01  0.1731E+01  0.1323E+02
   8.550  0.1695E+01  0.1682E+01  0.1340E+02
   8.600  0.1720E+01  0.1613E+01  0.1357E+02
   8.650  0.1855E+01  0.1572E+01  0.1374E+02
   8.700  0.2117E+01  0.1593E+01  0.1392E+02
   8.750  0.2447E+01  0.1691E+01  0.1413E+02
   8.800  0.2751E+01  0.1900E+01  0.1436E+02
   8.850  0.2981E+01  0.2281E+01  0.1463E+02
   8.900  0.3120E+01  0.2834E+01  0.1492E+02
   8.950  0.3112E+01  0.3378E+01  0.1525E+02
   9.000  0.2893E+01  0.3614E+01  0.1557E+02
   9.050  0.2511E+01  0.3385E+01  0.1587E+02
   9.100  0.2115E+01  0.2830E+01  0.1611E+02
   9.150  0.1810E+01  0.2240E+01  0.1632E+02
   9.200  0.1595E+01  0.1803E+01  0.1649E+02
   9.250  0.1442E+01  0.1534E+01  0.1664E+02
   9.300  0.1348E+01  0.1384E+01  0.1677E+02
   9.350  0.1310E+01  0.1314E+01  0.1690E+02
   9.400  0.1298E+01  0.1294E+01  0.1703E+02
   9.450  0.1287E+01  0.1290E+01  0.1716E+02
   9.500  0.1289E+01  0.1284E+01  0.1729E+02
   9.550  0.1324E+01  0.1282E+01  0.1742E+02
   9.600  0.1368E+01  0.1298E+01  0.1755E+02
   9.650  0.1351E+01  0.1323E+01  0.1769E+02
   9.700  0.1227E+01  0.1317E+01  0.1782E+02
   9.750  0.1031E+01  0.1241E+01  0.1793E+02
   9.800  0.8453E+00  0.1106E+01  0.1803E+02
   9.850  0.7294E+00  0.9582E+00  0.1811E+02
   9.900  0.6894E+00  0.8404E+00  0.1819E+02
   9.950  0.7033E+00  0.7686E+00  0.1826E+02
  10.000  0.7446E+00  0.7456E+00  0.1834E+02
  10.050  0.7827E+00  0.7587E+00  0.1841E+02
  10.100  0.7832E+00  0.7701E+00  0.1849E+02
  10.150  0.7263E+00  0.7368E+00  0.1856E+02
  10.200  0.6200E+00  0.6478E+00  0.1863E+02
  10.250  0.4912E+00  0.5341E+00  0.1868E+02
  10.300  0.3672E+00  0.4380E+00  0.1872E+02
  10.350  0.2711E+00  0.3787E+00  0.1875E+02
  10.400  0.2176E+00  0.3474E+00  0.1878E+02
  10.450  0.1992E+00  0.3246E+00  0.1881E+02
  10.500  0.1880E+00  0.2946E+00  0.1883E+02
  10.550  0.1638E+00  0.2541E+00  0.1885E+02
  10.600  0.1346E+00  0.2143E+00  0.1887E+02
  10.650  0.1238E+00  0.1896E+00  0.1888E+02
  10.700  0.1438E+00  0.1842E+00  0.1890E+02
  10.750  0.1879E+00  0.1936E+00  0.1892E+02
  10.800  0.2424E+00  0.2171E+00  0.1894E+02
  10.850  0.2923E+00  0.2555E+00  0.1897E+02
  10.900  0.3202E+00  0.2964E+00  0.1900E+02
  10.950  0.3140E+00  0.3176E+00  0.1903E+02
  11.000  0.2863E+00  0.3115E+00  0.1906E+02
  11.050  0.2713E+00  0.2978E+00  0.1909E+02
  11.100  0.2980E+00  0.3069E+00  0.1912E+02
  11.150  0.3664E+00  0.3537E+00  0.1916E+02
  11.200  0.4496E+00  0.4277E+00  0.1920E+02
  11.250  0.5187E+00  0.5044E+00  0.1925E+02
  11.300  0.5654E+00  0.5648E+00  0.1931E+02
  11.350  0.5993E+00  0.6025E+00  0.1937E+02
  11.400  0.6232E+00  0.6129E+00  0.1943E+02
  11.450  0.6247E+00  0.5878E+00  0.1949E+02
  11.500  0.5952E+00  0.5285E+00  0.1955E+02
  11.550  0.5464E+00  0.4584E+00  0.1960E+02
  11.600  0.5016E+00  0.4126E+00  0.1964E+02
  11.650  0.4745E+00  0.4090E+00  0.1969E+02
  11.700  0.4606E+00  0.4316E+00  0.1973E+02
  11.750  0.4475E+00  0.4464E+00  0.1978E+02
  11.800  0.4342E+00  0.4336E+00  0.1982E+02
  11.850  0.4436E+00  0.3978E+00  0.1986E+02
  11.900  0.5197E+00  0.3566E+00  0.1991E+02
  11.950  0.7302E+00  0.3297E+00  0.1996E+02
  12.000  0.1177E+01  0.3338E+00  0.2003E+02
  12.050  0.1966E+01  0.3784E+00  0.2015E+02
  12.100  0.3084E+01  0.4565E+00  0.2033E+02
  12.150  0.4300E+01  0.5388E+00  0.2057E+02
  12.200  0.5288E+01  0.5980E+00  0.2086E+02
  12.250  0.5902E+01  0.6606E+00  0.2119E+02
  12.300  0.6250E+01  0.8145E+00  0.2155E+02
  12.350  0.6472E+01  0.1130E+01  0.2193E+02
  12.400  0.6548E+01  0.1565E+01  0.2233E+02
  12.450  0.6369E+01  0.1953E+01  0.2275E+02
  12.500  0.5935E+01  0.2130E+01  0.2315E+02
  12.550  0.5448E+01  0.2086E+01  0.2353E+02
  12.600  0.5191E+01  0.2004E+01  0.2389E+02
  12.650  0.5290E+01  0.2121E+01  0.2426E+02
  12.700  0.5573E+01  0.2514E+01  0.2466E+02
  12.750  0.5697E+01  0.3006E+01  0.2510E+02
  12.800  0.5410E+01  0.3340E+01  0.2553E+02
  12.850  0.4709E+01  0.3430E+01  0.2594E+02
  12.900  0.3791E+01  0.3431E+01  0.2630E+02
  12.950  0.2907E+01  0.3555E+01  0.2663E+02
  13.000  0.2227E+01  0.3835E+01  0.2693E+02
  13.050  0.1780E+01  0.4048E+01  0.2722E+02
  13.100  0.1485E+01  0.3953E+01  0.2749E+02
  13.150  0.1244E+01  0.3628E+01  0.2774E+02
  13.200  0.1023E+01  0.3492E+01  0.2796E+02
  13.250  0.8487E+00  0.3912E+01  0.2820E+02
  13.300  0.7617E+00  0.4809E+01  0.2848E+02
  13.350  0.7740E+00  0.5693E+01  0.2880E+02
  13.400  0.8648E+00  0.6121E+01  0.2915E+02
  13.450  0.9999E+00  0.6045E+01  0.2950E+02
  13.500  0.1150E+01  0.5710E+01  0.2985E+02
  13.550  0.1294E+01  0.5332E+01  0.3018E+02
  13.600  0.1424E+01  0.4959E+01  0.3050E+02
  13.650  0.1552E+01  0.4568E+01  0.3080E+02
  13.700  0.1692E+01  0.4155E+01  0.3109E+02
  13.750  0.1814E+01  0.3719E+01  0.3137E+02
  13.800  0.1850E+01  0.3245E+01  0.3163E+02
  13.850  0.1765E+01  0.2742E+01  0.3185E+02
  13.900  0.1607E+01  0.2270E+01  0.3205E+02
  13.950  0.1461E+01  0.1900E+01  0.3221E+02
  14.000  0.1357E+01  0.1645E+01  0.3236E+02
  14.050  0.1241E+01  0.1474E+01  0.3250E+02
  14.100  0.1040E+01  0.1357E+01  0.3262E+02
  14.150  0.7470E+00  0.1291E+01  0.3272E+02
  14.200  0.4413E+00  0.1261E+01  0.3281E+02
  14.250  0.2093E+00  0.1205E+01  0.3288E+02
  14.300  0.8057E-01  0.1046E+01  0.3293E+02
  14.350  0.3126E-01  0.7768E+00  0.3297E+02
  14.400  0.2586E-01  0.4779E+00  0.3300E+02
  14.450  0.3915E-01  0.2478E+00  0.3301E+02
  14.500  0.5403E-01  0.1246E+00  0.3302E+02
  14.550  0.5800E-01  0.7948E-01  0.3303E+02
  14.600  0.4762E-01  0.6398E-01  0.3303E+02
  14.650  0.2992E-01  0.4896E-01  0.3304E+02
  14.700  0.1482E-01  0.3066E-01  0.3304E+02
  14.750  0.8069E-02  0.1687E-01  0.3304E+02
  14.800  0.1320E-01  0.1639E-01  0.3304E+02
  14.850  0.3913E-01  0.4145E-01  0.3305E+02
  14.900  0.1047E+00  0.1131E+00  0.3306E+02
  14.950  0.2339E+00  0.2514E+00  0.3308E+02
  15.000  0.4375E+00  0.4497E+00  0.3313E+02
  15.050  0.6896E+00  0.6598E+00  0.3319E+02
  15.100  0.9217E+00  0.8212E+00  0.3328E+02
  15.150  0.1060E+01  0.9070E+00  0.3338E+02
  15.200  0.1083E+01  0.9355E+00  0.3348E+02
  15.250  0.1032E+01  0.9380E+00  0.3358E+02
  15.300  0.9614E+00  0.9266E+00  0.3367E+02
  15.350  0.8950E+00  0.8924E+00  0.3376E+02
  15.400  0.8282E+00  0.8306E+00  0.3385E+02
  15.450  0.7629E+00  0.7609E+00  0.3392E+02
  15.500  0.7192E+00  0.7172E+00  0.3399E+02
  15.550  0.7141E+00  0.7158E+00  0.3407E+02
  15.600  0.7349E+00  0.7400E+00  0.3414E+02
  15.650  0.7406E+00  0.7558E+00  0.3421E+02
  15.700  0.6951E+00  0.7332E+00  0.3429E+02
  15.750  0.6055E+00  0.6633E+00  0.3435E+02
  15.800  0.5200E+00  0.5654E+00  0.3440E+02
  15.850  0.4830E+00  0.4777E+00  0.3445E+02
  15.900  0.5025E+00  0.4358E+00  0.3450E+02
  15.950  0.5610E+00  0.4575E+00  0.3455E+02
  16.000  0.6375E+00  0.5347E+00  0.3461E+02
